File: inst/extdata/CV_Framework_version7_06.DTA
EXPLAIN
TAG	CV
TITLE	LABEL	Cyclic Voltammetry	Test &Identifier
DATE	LABEL	4/9/2019	Date
TIME	LABEL	11:45:02	Time
NOTES	NOTES	1	&Notes...

PSTAT	PSTAT	REF3000-34126	Potentiostat
VINIT	POTEN	-1,80000E+000	F	Initial &E (V)
VLIMIT1	POTEN	-1,80000E+000	F	Scan Limit &1 (V)
VLIMIT2	POTEN	0,00000E+000	F	Scan Limit &2 (V)
VFINAL	POTEN	-1,80000E+000	F	Final &E (V)
SCANRATE	QUANT	4,99999E+001	&Scan Rate (mV/s)
STEPSIZE	QUANT	1,00000E+000	St&ep Size (mV)
CYCLES	IQUANT	1	C&ycles (#)
IMODE	SELECTOR	0	I/E Range &Mode
IRANGE	QUANT	3,00000E-001	&Max Current (mA)
AREA	QUANT	1,00000E+000	Electrode &Area (cm^2)
ELECTRODETYPE	SELECTOR	0	Electrode Type
STRIPPING	TOGGLE	F	Used for Stripping
POLARITY	TOGGLE	F	Signal Polarity
CONDIT	TWOPARAM	F	1,50000E+001	0,00000E+000	Conditionin&g	Time(s)	E(V)
DELAY	TWOPARAM	F	3,00000E+001	0,00000E+000	Init. De&lay	Time(s)	Stab.(mV/s)
EQDELAY	QUANT	5,00000E+000	Equil. &Time (s)
IRCOMP	SELECTOR	0	IRCom&p
PFCOR	QUANT	5,00000E+001	PF Corr. (ohm)
SAMPLINGMODE	SELECTOR	1	Sampling &Mode
EOC	QUANT	0	Open Circuit (V)
PSTATMODEL	IQUANT	5	Pstat Model
PSTATSECTION	LABEL	REF3000-34126	Pstat Section
PSTATSERIALNO	LABEL	34126	Pstat Serial Number
CTRLMODE	IQUANT	1	Control Mode
ELECTROMETER	IQUANT	0	RE=0 or CS=1
IESTAB	IQUANT	2	I/E Stability
CASPEED	IQUANT	4	Control Amp Speed
CONVENTION	IQUANT	1	Current Convention
ICHRANGE	IQUANT	2	Ich Range
ICHRANGEMODE	TOGGLE	F	Ich Auto Range
ICHOFFSETENABLE	TOGGLE	F	Ich Offset Enable
ICHOFFSET	QUANT	0	Ich Offset (V)
ICHFILTER	IQUANT	2	Ich Filter
VCHRANGE	IQUANT	2	Vch Range
VCHRANGEMODE	TOGGLE	F	Vch Auto Range
VCHOFFSETENABLE	TOGGLE	F	Vch Offset Enable
VCHOFFSET	QUANT	0	Vch Offset (V)
VCHFILTER	IQUANT	2	Vch Filter
ACHRANGE	IQUANT	2	Ach Range
ACHOFFSETENABLE	TOGGLE	F	Ach Offset Enable
ACHOFFSET	QUANT	0	Ach Offset (V)
ACHFILTER	IQUANT	1	Ach Filter
IERANGELOWERLIMIT	IQUANT	2	I/E Range Lower Limit
IERANGEMODE	TOGGLE	T	I/E AutoRange
IERANGE	IQUANT	9	I/E Range
POSFEEDENABLE	TOGGLE	F	Positive Feedback IR Comp
POSFEEDRESISTANCE	QUANT	0	Positive Feedback Resistance (ohm)
ACHSELECT	IQUANT	0	Ach Select
SENSECABLEID	IQUANT	14	Sense Cable ID
PWRCABLEID	IQUANT	7	Power Cable ID
DCCALDATE	LABEL	5/15/2019	DC Calibration Date
ACCALDATE	LABEL	5/15/2019	AC Calibration Date
THERMOSELECT	IQUANT	1	Thermo Select
FRAMEWORKVERSION	QUANT	7,06	Framework Version
INSTRUMENTVERSION	LABEL	4.30	Instrument Version
COMPLIANCEVOLTAGE	IQUANT	0	Compliance Voltage
CURVE1	TABLE
	Pt	T	Vf	Im	Vu	Sig	Ach	IERange	Over	Temp
	#	s	V vs. Ref.	A	V	V	V	#	bits	deg C
	0	0,02	-1,79758E+000	-3,28491E-003	0,00000E+000	-1,80000E+000	1,91118E-004	9	....ih..i.a	-327,61
	37	0,76	-1,76099E+000	-3,19286E-003	0,00000E+000	-1,76300E+000	1,00285E-004	10	..........a	-327,61
	74	1,5	-1,72401E+000	-2,67900E-003	0,00000E+000	-1,72600E+000	1,29452E-004	10	..........a	-327,61
	111	2,24	-1,68684E+000	-2,21982E-003	0,00000E+000	-1,68900E+000	1,36952E-004	9	..........a	-327,61
	148	2,98	-1,64989E+000	-1,80378E-003	0,00000E+000	-1,65200E+000	1,35285E-004	9	..........a	-327,61
	185	3,72	-1,61297E+000	-1,45347E-003	0,00000E+000	-1,61500E+000	7,69515E-005	9	..........a	-327,61
	222	4,46	-1,57606E+000	-1,15351E-003	0,00000E+000	-1,57800E+000	1,07785E-004	9	..........a	-327,61
	259	5,2	-1,53909E+000	-9,06028E-004	0,00000E+000	-1,54100E+000	8,44516E-005	9	..........a	-327,61
	296	5,94	-1,50217E+000	-7,12554E-004	0,00000E+000	-1,50400E+000	1,13618E-004	9	..........a	-327,61
	333	6,68	-1,46523E+000	-5,62743E-004	0,00000E+000	-1,46700E+000	1,29452E-004	9	..........a	-327,61
	370	7,42	-1,42827E+000	-4,55727E-004	0,00000E+000	-1,43000E+000	9,44515E-005	9	..........a	-327,61
	407	8,16	-1,39130E+000	-3,74850E-004	0,00000E+000	-1,39300E+000	1,27785E-004	9	..........a	-327,61
	444	8,9	-1,35436E+000	-3,15692E-004	0,00000E+000	-1,35600E+000	1,01952E-004	9	..........a	-327,61
	481	9,64	-1,31737E+000	-2,69421E-004	0,00000E+000	-1,31900E+000	1,13618E-004	9	..........a	-327,61
	518	10,38	-1,28021E+000	-2,29256E-004	0,00000E+000	-1,28200E+000	1,36118E-004	8	..........a	-327,61
	555	11,12	-1,24331E+000	-1,96489E-004	0,00000E+000	-1,24500E+000	1,44452E-004	8	..........a	-327,61
	592	11,86	-1,20635E+000	-1,64974E-004	0,00000E+000	-1,20800E+000	9,02849E-005	8	..........a	-327,61
	629	12,6	-1,16946E+000	-1,34141E-004	0,00000E+000	-1,17100E+000	1,02785E-004	8	..........a	-327,61
	666	13,34	-1,13252E+000	-1,00425E-004	0,00000E+000	-1,13400E+000	1,01952E-004	8	..........a	-327,61
	703	14,08	-1,09561E+000	-5,53773E-005	0,00000E+000	-1,09700E+000	1,34452E-004	8	..........a	-327,61
	740	14,82	-1,05884E+000	1,28496E-005	0,00000E+000	-1,06000E+000	1,34452E-004	7	..........a	-327,61
	777	15,56	-1,02183E+000	6,86764E-005	0,00000E+000	-1,02300E+000	9,27849E-005	8	..........a	-327,61
	814	16,3	-9,84865E-001	8,23699E-005	0,00000E+000	-9,86000E-001	1,68618E-004	8	..........a	-327,61
	851	17,04	-9,47886E-001	6,03223E-005	0,00000E+000	-9,49000E-001	9,94516E-005	8	..........a	-327,61
	888	17,78	-9,10921E-001	5,06786E-005	0,00000E+000	-9,12000E-001	1,42785E-004	8	..........a	-327,61
	925	18,52	-8,73919E-001	5,06779E-005	0,00000E+000	-8,75000E-001	1,26118E-004	8	..........a	-327,61
	962	19,26	-8,36996E-001	5,45428E-005	0,00000E+000	-8,38000E-001	1,51118E-004	8	..........a	-327,61
	999	20	-7,99969E-001	5,97195E-005	0,00000E+000	-8,01000E-001	1,06952E-004	8	..........a	-327,61
	1036	20,74	-7,63050E-001	6,14682E-005	0,00000E+000	-7,64000E-001	7,69515E-005	8	..........a	-327,61
	1073	21,48	-7,26040E-001	5,97094E-005	0,00000E+000	-7,27000E-001	1,41118E-004	8	..........a	-327,61
	1110	22,22	-6,89107E-001	5,81078E-005	0,00000E+000	-6,90000E-001	8,94516E-005	8	..........a	-327,61
	1147	22,96	-6,52126E-001	5,78191E-005	0,00000E+000	-6,53000E-001	1,37785E-004	8	..........a	-327,61
	1184	23,7	-6,15150E-001	5,89322E-005	0,00000E+000	-6,16000E-001	9,77849E-005	8	..........a	-327,61
	1221	24,44	-5,78189E-001	6,08055E-005	0,00000E+000	-5,79000E-001	1,20285E-004	8	..........a	-327,61
	1258	25,18	-5,41229E-001	6,31220E-005	0,00000E+000	-5,42000E-001	1,17785E-004	8	..........a	-327,61
	1295	25,92	-5,04285E-001	6,56079E-005	0,00000E+000	-5,05000E-001	1,51952E-004	8	..........a	-327,61
	1332	26,66	-4,67287E-001	6,75218E-005	0,00000E+000	-4,68000E-001	1,47785E-004	8	..........a	-327,61
	1369	27,4	-4,30345E-001	6,96523E-005	0,00000E+000	-4,31000E-001	8,86182E-005	8	..........a	-327,61
	1406	28,14	-3,93362E-001	7,21806E-005	0,00000E+000	-3,94000E-001	8,44516E-005	8	..........a	-327,61
	1443	28,88	-3,56418E-001	7,53777E-005	0,00000E+000	-3,57000E-001	1,08618E-004	8	..........a	-327,61
	1480	29,62	-3,19450E-001	7,89521E-005	0,00000E+000	-3,20000E-001	1,46118E-004	8	..........a	-327,61
	1517	30,36	-2,82486E-001	8,26595E-005	0,00000E+000	-2,83000E-001	1,15285E-004	8	..........a	-327,61
	1554	31,1	-2,45537E-001	8,69197E-005	0,00000E+000	-2,46000E-001	1,38618E-004	8	..........a	-327,61
	1591	31,84	-2,08585E-001	9,21944E-005	0,00000E+000	-2,09000E-001	9,19516E-005	8	..........a	-327,61
	1628	32,58	-1,71619E-001	9,86136E-005	0,00000E+000	-1,72000E-001	1,25285E-004	8	..........a	-327,61
	1665	33,32	-1,34657E-001	1,05957E-004	0,00000E+000	-1,35000E-001	1,49452E-004	8	..........a	-327,61
	1702	34,06	-9,77062E-002	1,14703E-004	0,00000E+000	-9,80000E-002	1,10285E-004	8	..........a	-327,61
	1739	34,8	-6,07362E-002	1,22851E-004	0,00000E+000	-6,10000E-002	1,39452E-004	8	..........a	-327,61
	1776	35,54	-2,38129E-002	1,32604E-004	0,00000E+000	-2,40000E-002	1,03618E-004	8	..........a	-327,61
	1813	36,28	-1,28258E-002	1,28121E-004	0,00000E+000	-1,30001E-002	1,47785E-004	8	..........a	-327,61
	1850	37,02	-4,97654E-002	1,09825E-004	0,00000E+000	-5,00001E-002	1,25285E-004	8	..........a	-327,61
	1887	37,76	-8,66700E-002	9,81642E-005	0,00000E+000	-8,70001E-002	1,58618E-004	8	..........a	-327,61
	1924	38,5	-1,23654E-001	8,81581E-005	0,00000E+000	-1,24000E-001	1,51118E-004	8	..........a	-327,61
	1961	39,24	-1,60588E-001	7,95328E-005	0,00000E+000	-1,61000E-001	1,00285E-004	8	..........a	-327,61
	1998	39,98	-1,97575E-001	7,15984E-005	0,00000E+000	-1,98000E-001	9,61182E-005	8	..........a	-327,61
	2035	40,72	-2,34512E-001	6,48629E-005	0,00000E+000	-2,35000E-001	1,27785E-004	8	..........a	-327,61
	2072	41,46	-2,71484E-001	5,78620E-005	0,00000E+000	-2,72000E-001	1,04452E-004	8	..........a	-327,61
	2109	42,2	-3,08413E-001	5,17521E-005	0,00000E+000	-3,09000E-001	1,21952E-004	8	..........a	-327,61
	2146	42,94	-3,45406E-001	4,59278E-005	0,00000E+000	-3,46000E-001	1,10285E-004	8	..........a	-327,61
	2183	43,68	-3,82339E-001	3,95980E-005	0,00000E+000	-3,83000E-001	1,01118E-004	8	..........a	-327,61
	2220	44,42	-4,19300E-001	3,41539E-005	0,00000E+000	-4,20000E-001	1,50285E-004	8	..........a	-327,61
	2257	45,16	-4,56288E-001	2,90523E-005	0,00000E+000	-4,57000E-001	1,55285E-004	8	..........a	-327,61
	2294	45,9	-4,93215E-001	2,42895E-005	0,00000E+000	-4,94000E-001	1,29452E-004	8	..........a	-327,61
	2331	46,64	-5,30401E-001	1,94077E-005	0,00000E+000	-5,31000E-001	1,30285E-004	7	..........a	-327,61
	2368	47,38	-5,67295E-001	1,52453E-005	0,00000E+000	-5,68000E-001	1,11952E-004	7	..........a	-327,61
	2405	48,12	-6,04222E-001	1,15420E-005	0,00000E+000	-6,05000E-001	1,01118E-004	7	..........a	-327,61
	2442	48,86	-6,41122E-001	7,61608E-006	0,00000E+000	-6,42000E-001	8,52849E-005	7	..........a	-327,61
	2479	49,6	-6,78046E-001	3,74653E-006	0,00000E+000	-6,79000E-001	1,51118E-004	7	..........a	-327,61
	2516	50,34	-7,14981E-001	1,14502E-007	0,00000E+000	-7,16000E-001	9,27849E-005	7	..........a	-327,61
	2553	51,08	-7,51889E-001	-3,61490E-006	0,00000E+000	-7,53000E-001	8,02849E-005	7	..........a	-327,61
	2590	51,82	-7,88802E-001	-7,57526E-006	0,00000E+000	-7,90000E-001	9,86182E-005	7	..........a	-327,61
	2627	52,56	-8,25755E-001	-1,19126E-005	0,00000E+000	-8,27000E-001	8,86182E-005	7	..........a	-327,61
	2664	53,3	-8,62679E-001	-1,67369E-005	0,00000E+000	-8,64000E-001	9,69516E-005	7	..........a	-327,61
	2701	54,04	-8,99544E-001	-2,19855E-005	0,00000E+000	-9,01000E-001	1,02785E-004	7	..........a	-327,61
	2738	54,78	-9,36793E-001	-2,72696E-005	0,00000E+000	-9,38000E-001	1,34452E-004	8	..........a	-327,61
	2775	55,52	-9,73733E-001	-3,25207E-005	0,00000E+000	-9,75000E-001	1,11952E-004	8	..........a	-327,61
	2812	56,26	-1,01069E+000	-3,83479E-005	0,00000E+000	-1,01200E+000	1,43618E-004	8	..........a	-327,61
	2849	57	-1,04767E+000	-4,89901E-005	0,00000E+000	-1,04900E+000	1,06118E-004	8	..........a	-327,61
	2886	57,74	-1,08460E+000	-7,13939E-005	0,00000E+000	-1,08600E+000	8,61182E-005	8	..........a	-327,61
	2923	58,48	-1,12153E+000	-1,06375E-004	0,00000E+000	-1,12300E+000	1,00285E-004	8	..........a	-327,61
	2960	59,22	-1,15843E+000	-1,51299E-004	0,00000E+000	-1,16000E+000	1,10285E-004	8	..........a	-327,61
	2997	59,96	-1,19533E+000	-2,09706E-004	0,00000E+000	-1,19700E+000	9,77849E-005	8	..........a	-327,61
	3034	60,7	-1,23224E+000	-2,60951E-004	0,00000E+000	-1,23400E+000	1,23618E-004	8	..........a	-327,61
	3071	61,44	-1,26921E+000	-2,64329E-004	0,00000E+000	-1,27100E+000	1,26952E-004	8	..........a	-327,61
	3108	62,18	-1,30639E+000	-2,87963E-004	0,00000E+000	-1,30800E+000	9,69516E-005	9	..........a	-327,61
	3145	62,92	-1,34337E+000	-3,26170E-004	0,00000E+000	-1,34500E+000	1,51952E-004	9	..........a	-327,61
	3182	63,66	-1,38032E+000	-3,75137E-004	0,00000E+000	-1,38200E+000	1,09452E-004	9	..........a	-327,61
	3219	64,4	-1,41725E+000	-4,37833E-004	0,00000E+000	-1,41900E+000	9,52849E-005	9	..........a	-327,61
	3256	65,14	-1,45424E+000	-5,22420E-004	0,00000E+000	-1,45600E+000	7,61182E-005	9	..........a	-327,61
	3293	65,88	-1,49117E+000	-6,34085E-004	0,00000E+000	-1,49300E+000	1,20285E-004	9	..........a	-327,61
	3330	66,62	-1,52816E+000	-7,71479E-004	0,00000E+000	-1,53000E+000	7,27849E-005	9	..........a	-327,61
	3367	67,36	-1,56509E+000	-9,49277E-004	0,00000E+000	-1,56700E+000	8,27849E-005	9	..........a	-327,61
	3404	68,1	-1,60202E+000	-1,16737E-003	0,00000E+000	-1,60400E+000	1,06952E-004	9	..........a	-327,61
	3441	68,84	-1,63896E+000	-1,43036E-003	0,00000E+000	-1,64100E+000	1,35285E-004	9	..........a	-327,61
	3478	69,58	-1,67589E+000	-1,72901E-003	0,00000E+000	-1,67800E+000	1,55285E-004	9	..........a	-327,61
	3515	70,32	-1,71283E+000	-2,07717E-003	0,00000E+000	-1,71500E+000	1,19452E-004	9	..........a	-327,61
	3552	71,06	-1,74974E+000	-2,48496E-003	0,00000E+000	-1,75200E+000	1,11952E-004	9	..........a	-327,61
	3589	71,8	-1,78698E+000	-2,94076E-003	0,00000E+000	-1,78900E+000	1,00285E-004	10	..........a	-327,61
	3600	72,02	-1,79792E+000	-3,08561E-003	0,00000E+000	-1,80000E+000	1,11952E-004	10	..........a	-327,61