File: inst/extdata/impedancia.DTA
EXPLAIN
TAG	EISPOT
TITLE	LABEL	Potentiostatic EIS	Test &Identifier
DATE	LABEL	28/6/2019	Date
TIME	LABEL	12:33:35	Time
NOTES	NOTES	1	&Notes...

PSTAT	PSTAT	REF3000-34126	Potentiostat
VDC	POTEN	0,00000E+000	T	DC &Voltage (V)
FREQINIT	QUANT	5,00000E+004	Initial Fre&q. (Hz)
FREQFINAL	QUANT	1,00000E-002	Final Fre&q. (Hz)
PTSPERDEC	QUANT	1,00000E+001	Points/&decade
VAC	QUANT	1,00000E+001	AC &Voltage (mV rms)
AREA	QUANT	1,00000E+000	&Area (cm^2)
CONDIT	TWOPARAM	F	1,50000E+001	0,00000E+000	Conditionin&g	Time(s)	E(V)
DELAY	TWOPARAM	T	3,60000E+003	0,00000E+000	Init. De&lay	Time(s)	Stab.(mV/s)
SPEED	SELECTOR	1	&Optimize for:
ZGUESS	QUANT	1,00000E+000	E&stimated Z (ohms)
OCVCURVE	TABLE	1434
	Pt	T	Vf	Vm	Ach	Over	Temp
	#	s	V vs. Ref.	V	V	bits	deg C
	0	2,51	-9,56958E-001	-9,56958E-001	1,71525E-004	..........a	-327,61
	11	30,12	-9,56916E-001	-9,56901E-001	1,65018E-004	..........a	-327,61
	22	57,73	-9,56866E-001	-9,56847E-001	1,60352E-004	..........a	-327,61
	33	85,34	-9,56834E-001	-9,56829E-001	1,56405E-004	..........a	-327,61
	44	112,95	-9,56829E-001	-9,56822E-001	1,54738E-004	..........a	-327,61
	55	140,56	-9,56829E-001	-9,56832E-001	1,59638E-004	..........a	-327,61
	66	168,17	-9,56831E-001	-9,56836E-001	1,55705E-004	..........a	-327,61
	77	195,78	-9,56838E-001	-9,56840E-001	1,62645E-004	..........a	-327,61
	88	223,39	-9,56836E-001	-9,56840E-001	1,66458E-004	..........a	-327,61
	99	251	-9,56844E-001	-9,56843E-001	1,64525E-004	..........a	-327,61
	110	278,61	-9,56841E-001	-9,56847E-001	1,66712E-004	..........a	-327,61
	121	306,22	-9,56846E-001	-9,56842E-001	1,71365E-004	..........a	-327,61
	132	333,83	-9,56841E-001	-9,56835E-001	1,69112E-004	..........a	-327,61
	143	361,44	-9,56823E-001	-9,56826E-001	1,67472E-004	..........a	-327,61
	154	389,05	-9,56815E-001	-9,56810E-001	1,64965E-004	..........a	-327,61
	165	416,66	-9,56819E-001	-9,56823E-001	1,59092E-004	..........a	-327,61
	176	444,27	-9,56819E-001	-9,56815E-001	1,64372E-004	..........a	-327,61
	187	471,88	-9,56806E-001	-9,56798E-001	1,58678E-004	..........a	-327,61
	198	499,49	-9,56796E-001	-9,56792E-001	1,57932E-004	..........a	-327,61
	209	527,1	-9,56770E-001	-9,56772E-001	1,61492E-004	..........a	-327,61
	220	554,71	-9,56762E-001	-9,56750E-001	1,56238E-004	..........a	-327,61
	231	582,32	-9,56737E-001	-9,56730E-001	1,54398E-004	..........a	-327,61
	242	609,93	-9,56660E-001	-9,56667E-001	1,40045E-004	..........a	-327,61
	253	637,54	-9,56706E-001	-9,56699E-001	1,49478E-004	..........a	-327,61
	264	665,15	-9,56683E-001	-9,56673E-001	1,49285E-004	..........a	-327,61
	275	692,76	-9,56651E-001	-9,56647E-001	1,39885E-004	..........a	-327,61
	286	720,37	-9,56627E-001	-9,56617E-001	1,45978E-004	..........a	-327,61
	297	747,98	-9,56577E-001	-9,56575E-001	1,43792E-004	..........a	-327,61
	308	775,59	-9,56552E-001	-9,56546E-001	1,44118E-004	..........a	-327,61
	319	803,2	-9,56525E-001	-9,56514E-001	1,53025E-004	..........a	-327,61
	330	830,81	-9,56498E-001	-9,56496E-001	1,49538E-004	..........a	-327,61
	341	858,42	-9,56475E-001	-9,56463E-001	1,52892E-004	..........a	-327,61
	352	886,03	-9,56441E-001	-9,56434E-001	1,49205E-004	..........a	-327,61
	363	913,64	-9,56418E-001	-9,56410E-001	1,56865E-004	..........a	-327,61
	374	941,25	-9,56399E-001	-9,56394E-001	1,51532E-004	..........a	-327,61
	385	968,86	-9,56381E-001	-9,56372E-001	1,43805E-004	..........a	-327,61
	396	996,47	-9,56370E-001	-9,56370E-001	1,46465E-004	..........a	-327,61
	407	1024,08	-9,56361E-001	-9,56357E-001	1,44712E-004	..........a	-327,61
	418	1051,69	-9,56354E-001	-9,56352E-001	1,45892E-004	..........a	-327,61
	429	1079,3	-9,56350E-001	-9,56351E-001	1,52352E-004	..........a	-327,61
	440	1106,91	-9,56348E-001	-9,56342E-001	1,38032E-004	..........a	-327,61
	451	1134,52	-9,56336E-001	-9,56333E-001	1,36772E-004	..........a	-327,61
	462	1162,13	-9,56325E-001	-9,56328E-001	1,36985E-004	..........a	-327,61
	473	1189,74	-9,56322E-001	-9,56314E-001	1,39752E-004	..........a	-327,61
	484	1217,35	-9,56303E-001	-9,56306E-001	1,39758E-004	..........a	-327,61
	495	1244,96	-9,56299E-001	-9,56294E-001	1,39085E-004	..........a	-327,61
	506	1272,57	-9,56287E-001	-9,56283E-001	1,31818E-004	..........a	-327,61
	517	1300,18	-9,56277E-001	-9,56276E-001	1,41578E-004	..........a	-327,61
	528	1327,79	-9,56271E-001	-9,56269E-001	1,44012E-004	..........a	-327,61
	539	1355,4	-9,56268E-001	-9,56267E-001	1,28985E-004	..........a	-327,61
	550	1383,01	-9,56265E-001	-9,56285E-001	1,35918E-004	..........a	-327,61
	561	1410,62	-9,56264E-001	-9,56252E-001	1,27898E-004	..........a	-327,61
	572	1438,23	-9,56235E-001	-9,56224E-001	1,27098E-004	..........a	-327,61
	583	1465,84	-9,56214E-001	-9,56195E-001	1,25632E-004	..........a	-327,61
	594	1493,45	-9,56167E-001	-9,56155E-001	1,27738E-004	..........a	-327,61
	605	1521,06	-9,56141E-001	-9,56147E-001	1,31265E-004	..........a	-327,61
	616	1548,67	-9,56127E-001	-9,56143E-001	1,28958E-004	..........a	-327,61
	627	1576,28	-9,56136E-001	-9,56144E-001	1,30525E-004	..........a	-327,61
	638	1603,89	-9,56137E-001	-9,56137E-001	1,22745E-004	..........a	-327,61
	649	1631,5	-9,56103E-001	-9,56091E-001	1,18812E-004	..........a	-327,61
	660	1659,11	-9,56077E-001	-9,56065E-001	1,18385E-004	..........a	-327,61
	671	1686,72	-9,56050E-001	-9,56044E-001	1,27765E-004	..........a	-327,61
	682	1714,33	-9,56014E-001	-9,56000E-001	1,24585E-004	..........a	-327,61
	693	1741,94	-9,55996E-001	-9,55985E-001	1,19085E-004	..........a	-327,61
	704	1769,55	-9,55968E-001	-9,55968E-001	1,26745E-004	..........a	-327,61
	715	1797,16	-9,55972E-001	-9,55967E-001	1,24198E-004	..........a	-327,61
	726	1824,77	-9,55951E-001	-9,55946E-001	1,22372E-004	..........a	-327,61
	737	1852,38	-9,55922E-001	-9,55918E-001	1,18238E-004	..........a	-327,61
	748	1879,99	-9,55900E-001	-9,55892E-001	1,16472E-004	..........a	-327,61
	759	1907,6	-9,55878E-001	-9,55868E-001	1,20272E-004	..........a	-327,61
	770	1935,21	-9,55845E-001	-9,55829E-001	1,15705E-004	..........a	-327,61
	781	1962,82	-9,55806E-001	-9,55797E-001	1,30378E-004	..........a	-327,61
	792	1990,43	-9,55772E-001	-9,55768E-001	1,34172E-004	..........a	-327,61
	803	2018,04	-9,55753E-001	-9,55743E-001	1,38872E-004	..........a	-327,61
	814	2045,65	-9,55732E-001	-9,55729E-001	1,38058E-004	..........a	-327,61
	825	2073,26	-9,55728E-001	-9,55719E-001	1,38925E-004	..........a	-327,61
	836	2100,87	-9,55694E-001	-9,55694E-001	1,51905E-004	..........a	-327,61
	847	2128,48	-9,55670E-001	-9,55677E-001	1,46745E-004	..........a	-327,61
	858	2156,09	-9,55650E-001	-9,55646E-001	1,54618E-004	..........a	-327,61
	869	2183,7	-9,55633E-001	-9,55627E-001	1,65678E-004	..........a	-327,61
	880	2211,31	-9,55606E-001	-9,55607E-001	1,65992E-004	..........a	-327,61
	891	2238,92	-9,55581E-001	-9,55574E-001	1,68292E-004	..........a	-327,61
	902	2266,53	-9,55564E-001	-9,55559E-001	1,69678E-004	..........a	-327,61
	913	2294,14	-9,55553E-001	-9,55593E-001	1,67532E-004	..........a	-327,61
	924	2321,75	-9,55579E-001	-9,55574E-001	1,67345E-004	..........a	-327,61
	935	2349,36	-9,55550E-001	-9,55529E-001	1,69812E-004	..........a	-327,61
	946	2376,97	-9,55498E-001	-9,55489E-001	1,73498E-004	..........a	-327,61
	957	2404,58	-9,55471E-001	-9,55466E-001	1,78165E-004	..........a	-327,61
	968	2432,19	-9,55443E-001	-9,55426E-001	1,79298E-004	..........a	-327,61
	979	2459,8	-9,55412E-001	-9,55402E-001	1,74592E-004	..........a	-327,61
	990	2487,41	-9,55383E-001	-9,55379E-001	1,73345E-004	..........a	-327,61
	1001	2515,02	-9,55359E-001	-9,55358E-001	1,71658E-004	..........a	-327,61
	1012	2542,63	-9,55351E-001	-9,55352E-001	1,69698E-004	..........a	-327,61
	1023	2570,24	-9,55355E-001	-9,55348E-001	1,64165E-004	..........a	-327,61
	1034	2597,85	-9,55379E-001	-9,55375E-001	1,74338E-004	..........a	-327,61
	1045	2625,46	-9,55352E-001	-9,55343E-001	1,70678E-004	..........a	-327,61
	1056	2653,07	-9,55324E-001	-9,55320E-001	1,63325E-004	..........a	-327,61
	1067	2680,68	-9,55313E-001	-9,55312E-001	1,67352E-004	..........a	-327,61
	1078	2708,29	-9,55344E-001	-9,55333E-001	1,59185E-004	..........a	-327,61
	1089	2735,9	-9,55308E-001	-9,55309E-001	1,58512E-004	..........a	-327,61
	1100	2763,51	-9,55284E-001	-9,55275E-001	1,61445E-004	..........a	-327,61
	1111	2791,12	-9,55250E-001	-9,55243E-001	1,56118E-004	..........a	-327,61
	1122	2818,73	-9,55227E-001	-9,55215E-001	1,40785E-004	..........a	-327,61
	1133	2846,34	-9,55197E-001	-9,55196E-001	1,45592E-004	..........a	-327,61
	1144	2873,95	-9,55183E-001	-9,55176E-001	1,46132E-004	..........a	-327,61
	1155	2901,56	-9,55164E-001	-9,55162E-001	1,41732E-004	..........a	-327,61
	1166	2929,17	-9,55140E-001	-9,55138E-001	1,42345E-004	..........a	-327,61
	1177	2956,78	-9,55121E-001	-9,55119E-001	1,35078E-004	..........a	-327,61
	1188	2984,39	-9,55108E-001	-9,55105E-001	1,39365E-004	..........a	-327,61
	1199	3012	-9,55089E-001	-9,55087E-001	1,38105E-004	..........a	-327,61
	1210	3039,61	-9,55104E-001	-9,55094E-001	1,32672E-004	..........a	-327,61
	1221	3067,22	-9,55078E-001	-9,55065E-001	1,31945E-004	..........a	-327,61
	1232	3094,83	-9,55061E-001	-9,55051E-001	1,29438E-004	..........a	-327,61
	1243	3122,44	-9,55031E-001	-9,55028E-001	1,32932E-004	..........a	-327,61
	1254	3150,05	-9,55009E-001	-9,55004E-001	1,28805E-004	..........a	-327,61
	1265	3177,66	-9,54987E-001	-9,54983E-001	1,35618E-004	..........a	-327,61
	1276	3205,27	-9,54972E-001	-9,54963E-001	1,34392E-004	..........a	-327,61
	1287	3232,88	-9,54947E-001	-9,54944E-001	1,34385E-004	..........a	-327,61
	1298	3260,49	-9,54925E-001	-9,54926E-001	1,39378E-004	..........a	-327,61
	1309	3288,1	-9,54914E-001	-9,54908E-001	1,42792E-004	..........a	-327,61
	1320	3315,71	-9,54892E-001	-9,54888E-001	1,35092E-004	..........a	-327,61
	1331	3343,32	-9,54862E-001	-9,54848E-001	1,41498E-004	..........a	-327,61
	1342	3370,93	-9,54826E-001	-9,54825E-001	1,51165E-004	..........a	-327,61
	1353	3398,54	-9,54805E-001	-9,54794E-001	1,45965E-004	..........a	-327,61
	1364	3426,15	-9,54789E-001	-9,54799E-001	1,36932E-004	..........a	-327,61
	1375	3453,76	-9,54778E-001	-9,54762E-001	1,40758E-004	..........a	-327,61
	1386	3481,37	-9,54750E-001	-9,54744E-001	1,41892E-004	..........a	-327,61
	1397	3508,98	-9,54727E-001	-9,54717E-001	1,30445E-004	..........a	-327,61
	1408	3536,59	-9,54700E-001	-9,54690E-001	1,28738E-004	..........a	-327,61
	1419	3564,2	-9,54683E-001	-9,54680E-001	1,28712E-004	..........a	-327,61
	1430	3591,81	-9,54667E-001	-9,54663E-001	1,30185E-004	..........a	-327,61
	1433	3599,34	-9,54660E-001	-9,54648E-001	1,33278E-004	..........a	-327,61
EOC	QUANT	-0,95466	Open Circuit (V)
PSTATMODEL	IQUANT	5	Pstat Model
PSTATSECTION	LABEL	REF3000-34126	Pstat Section
PSTATSERIALNO	LABEL	34126	Pstat Serial Number
CTRLMODE	IQUANT	1	Control Mode
ELECTROMETER	IQUANT	0	RE=0 or CS=1
IESTAB	IQUANT	0	I/E Stability
CASPEED	IQUANT	3	Control Amp Speed
CONVENTION	IQUANT	1	Current Convention
ICHRANGE	IQUANT	2	Ich Range
ICHRANGEMODE	TOGGLE	F	Ich Auto Range
ICHOFFSETENABLE	TOGGLE	T	Ich Offset Enable
ICHOFFSET	QUANT	0	Ich Offset (V)
ICHFILTER	IQUANT	3	Ich Filter
VCHRANGE	IQUANT	2	Vch Range
VCHRANGEMODE	TOGGLE	F	Vch Auto Range
VCHOFFSETENABLE	TOGGLE	T	Vch Offset Enable
VCHOFFSET	QUANT	0	Vch Offset (V)
VCHFILTER	IQUANT	3	Vch Filter
ACHRANGE	IQUANT	2	Ach Range
ACHOFFSETENABLE	TOGGLE	F	Ach Offset Enable
ACHOFFSET	QUANT	0	Ach Offset (V)
ACHFILTER	IQUANT	1	Ach Filter
IERANGELOWERLIMIT	IQUANT	2	I/E Range Lower Limit
IERANGEMODE	TOGGLE	F	I/E AutoRange
IERANGE	IQUANT	12	I/E Range
POSFEEDENABLE	TOGGLE	F	Positive Feedback IR Comp
POSFEEDRESISTANCE	QUANT	0	Positive Feedback Resistance (ohm)
ACHSELECT	IQUANT	0	Ach Select
SENSECABLEID	IQUANT	14	Sense Cable ID
PWRCABLEID	IQUANT	7	Power Cable ID
DCCALDATE	LABEL	5/15/2019	DC Calibration Date
ACCALDATE	LABEL	5/15/2019	AC Calibration Date
THERMOSELECT	IQUANT	1	Thermo Select
FRAMEWORKVERSION	QUANT	7,06	Framework Version
INSTRUMENTVERSION	LABEL	4.30	Instrument Version
COMPLIANCEVOLTAGE	IQUANT	0	Compliance Voltage
ZCURVE	TABLE
	Pt	Time	Freq	Zreal	Zimag	Zsig	Zmod	Zphz	Idc	Vdc	IERange
	#	s	Hz	ohm	ohm	V	ohm		A	V	#
	0	1	50015,62	167,4209	-14,48175	1	168,0461	-4,943725	1,036861E-007	-0,953244	8
	1	2	39796,87	168,0418	-17,34505	1	168,9346	-5,893124	1,391055E-007	-0,953239	8
	2	4	31640,63	168,8137	-20,90406	1	170,1031	-7,058955	1,272002E-007	-0,953241	8
	3	5	25078,13	169,7685	-25,35627	1	171,6516	-8,494785	9,615556E-008	-0,95314	8
	4	7	19921,88	170,9454	-30,85065	1	173,7069	-10,2301	1,111156E-007	-0,953238	8
	5	8	15890,62	172,4532	-37,42575	1	176,4675	-12,24445	1,08803E-007	-0,953223	8
	6	10	12609,37	174,3279	-45,66166	1	180,2088	-14,67773	1,753999E-007	-0,953205	8
	7	11	9984,37	176,6792	-55,81081	1	185,2846	-17,53069	8,052461E-008	-0,953148	8
	8	13	7858,456	179,7881	-68,66045	1	192,4526	-20,90169	1,357853E-007	-0,953235	8
	9	15	6328,125	183,314	-82,81915	1	201,1543	-24,3129	1,294975E-007	-0,953233	8
	10	16	5015,625	188,2042	-101,1803	1	213,6779	-28,26288	1,639119E-007	-0,953205	8
	11	18	3984,375	194,3929	-123,3204	1	230,2097	-32,39053	7,105621E-008	-0,953247	8
	12	19	3170,956	202,4012	-149,786	1	251,7978	-36,50311	1,03811E-007	-0,953144	8
	13	21	2527,573	212,679	-181,3853	1	279,5228	-40,4595	9,088257E-008	-0,953318	8
	14	23	1976,103	227,4068	-222,5497	1	318,1858	-44,38153	1,713445E-007	-0,953196	8
	15	24	1577,524	244,825	-267,6109	1	362,7049	-47,54603	8,69526E-008	-0,953147	8
	16	26	1265,625	266,2543	-319,3434	1	415,7783	-50,18016	1,420496E-007	-0,953213	8
	17	28	998,264	296,0238	-384,7236	1	485,43	-52,42368	1,591044E-007	-0,953241	8
	18	29	796,875	332,7258	-457,5029	1	565,699	-53,97292	1,386375E-007	-0,953237	8
	19	31	627,7902	380,5677	-546,7926	1	666,1936	-55,16208	8,732091E-008	-0,953245	8
	20	32	495,7933	440,3052	-648,0401	1	783,4697	-55,80619	1,04204E-007	-0,953223	8
	21	34	397,9953	509,138	-755,5266	1	911,0664	-56,02456	1,037032E-007	-0,953205	7
	22	35	315,5048	598,6015	-883,2221	1	1066,961	-55,87265	1,064977E-007	-0,953205	7
	23	37	252,4038	703,0814	-1020,15	1	1238,963	-55,42561	1,112238E-007	-0,953202	7
	24	38	198,6229	838,5304	-1182,704	1	1449,8	-54,66357	1,156214E-007	-0,953204	7
	25	40	158,3615	991,962	-1350,84	1	1675,935	-53,70906	1,17407E-007	-0,953199	7
	26	42	125,558	1177,832	-1537,047	1	1936,441	-52,53721	1,230092E-007	-0,953203	7
	27	43	100,4464	1386,8	-1728,203	1	2215,829	-51,25462	1,286346E-007	-0,953203	7
	28	45	79,00281	1647,608	-1945,51	1	2549,436	-49,73951	1,327845E-007	-0,953199	7
	29	47	62,77901	1936,074	-2161,928	1	2902,122	-48,15456	1,407152E-007	-0,9532	7
	30	48	45,07212	2422,115	-2483,15	1	3468,814	-45,71288	1,459242E-007	-0,953206	7
	31	50	38,42213	2689,29	-2639,448	1	3768,151	-44,4641	1,519772E-007	-0,953207	7
	32	51	31,25	3064,2	-2836,201	1	4175,327	-42,78712	1,549514E-007	-0,953201	7
	33	53	24,93351	3518,948	-3046,325	1	4654,362	-40,88248	1,550295E-007	-0,953201	7
	34	54	19,86229	4007,398	-3240,416	1	5153,594	-38,95929	1,715776E-007	-0,953123	7
	35	56	15,625	4580,254	-3421,478	1	5717,101	-36,75996	1,481789E-007	-0,953119	7
	36	57	12,40079	5168,808	-3557,092	1	6274,51	-34,53513	1,429222E-007	-0,953119	7
	37	59	9,93114	5758,828	-3650,852	1	6818,564	-32,37296	1,435735E-007	-0,953115	7
	38	60	7,944915	6373,203	-3699,822	1	7369,288	-30,13636	1,418502E-007	-0,953116	7
	39	62	6,317385	7003,943	-3700,738	1	7921,532	-27,85104	1,417841E-007	-0,953118	7
	40	64	5,008013	7636,801	-3644,724	1	8461,959	-25,51318	1,360231E-007	-0,953103	6
	41	67	3,945707	8255,371	-3545,703	1	8984,607	-23,24365	1,344626E-007	-0,953105	6
	42	70	3,158693	8796,479	-3410,153	1	9434,361	-21,18994	1,335354E-007	-0,953104	6
	43	74	2,504006	9321,779	-3241,16	1	9869,18	-19,17244	1,31599E-007	-0,953108	6
	44	79	1,998082	9767,32	-3083,083	1	10242,36	-17,51845	1,352998E-007	-0,953109	6
	45	84	1,584686	10186,92	-2904,537	1	10592,9	-15,91413	1,301635E-007	-0,953104	6
	46	90	1,266892	10536,66	-2746,752	1	10888,79	-14,61099	1,279713E-007	-0,953103	6
	47	98	0,999041	10865,41	-2605,691	1	11173,48	-13,48573	1,265506E-007	-0,953104	6
	48	104	0,7944915	11142,99	-2514,329	1	11423,14	-12,7154	1,247321E-007	-0,953102	6
	49	112	0,633446	11371,59	-2460,216	1	11634,68	-12,20766	1,261779E-007	-0,953098	6
	50	121	0,5040323	11605,92	-2464,733	1	11864,75	-11,98969	1,240378E-007	-0,9531	6
	51	132	0,3972458	11813,5	-2524,488	1	12080,22	-12,06241	1,262785E-007	-0,953099	6
	52	146	0,316723	12038,51	-2643,495	1	12325,33	-12,38482	1,25121E-007	-0,953099	6
	53	163	0,2506685	12272,06	-2835,674	1	12595,42	-13,01084	1,245473E-007	-0,953101	6
	54	185	0,1994681	12528,21	-3089,086	1	12903,43	-13,85116	1,245032E-007	-0,9531	6
	55	211	0,1583615	12828,61	-3410,921	1	13274,32	-14,88954	1,258467E-007	-0,953102	6
	56	242	0,1256702	13173,73	-3790,95	1	13708,34	-16,05401	1,283213E-007	-0,9531	6
	57	280	0,0999467	13630,29	-4219,714	1	14268,52	-17,20167	1,263635E-007	-0,953103	6
	58	322	0,0793147	14233,17	-4661,992	1	14977,23	-18,1359	1,249062E-007	-0,953099	6
	59	373	0,063004	14967,05	-5092,805	1	15809,78	-18,79179	1,223252E-007	-0,953096	6
	60	438	0,0500267	15825,78	-5407,461	1	16724,11	-18,86463	1,215553E-007	-0,953095	6
	61	520	0,0397246	16761,41	-5595,89	1	17670,85	-18,46187	1,170548E-007	-0,953086	6
	62	622	0,0315657	17717,31	-5484,023	1	18546,63	-17,19882	1,207005E-007	-0,953083	6
	63	750	0,0250668	18715,88	-5256,435	1	19440,01	-15,68763	1,149231E-007	-0,953083	6
	64	911	0,0199129	19599,16	-4885,982	1	20199,01	-13,99824	1,067175E-007	-0,953081	6
	65	1113	0,0158148	20272,14	-4335,049	1	20730,46	-12,07049	9,774139E-008	-0,953073	6
	66	1367	0,0125603	20944	-3617,167	1	21254,05	-9,7987	7,241955E-008	-0,953058	6
	67	1687	0,0099776	20700,29	-2554,642	1	20857,33	-7,035352	9,625984E-008	-0,953061	6