File: inst/extdata/PD_Framework_version4_3.dta
EXPLAIN
TAG	POTENTIODYNAMIC
TITLE	LABEL	Potentiodynamic Scan	Test &Identifier
DATE	LABEL	6/24/2004	Date
TIME	LABEL	10:37:28	Time
NOTES	NOTES	2	&Notes...
	430 Stainless Steel
	Deaerated 1 N H2S04
PSTAT	PSTAT	PCI4/750	Potentiostat
VINIT	POTEN	-2.00000E-002	T	Initial &E (V)
VFINAL	POTEN	1.60000E+000	F	Final &E (V)
SCANRATE	QUANT	1.67000E-001	Scan Ra&te (mV/s)
SAMPLETIME	QUANT	5.00000E+000	Sa&mple Period (s)
AREA	QUANT	5.00000E+000	Sample &Area (cm^2)
DENSITY	QUANT	7.87000E+000	Densit&y (gm/cm^3)
EQUIV	QUANT	2.79200E+001	Equiv. &Wt
CONDIT	TWOPARAM	F	1.50000E+001	0.00000E+000	Conditionin&g	Time(s)	E(V)
DELAY	TWOPARAM	T	3.00000E+002	0.00000E+000	Init. De&lay	Time(s)	Stab.(mV/s)
IRCOMP	TOGGLE	F	IR Com&p
OCVCURVE	TABLE	1161
	Pt	T	Vf	Vm	Ach	Over
	#	s	V vs. Ref.	V	V	bits
	0	0.258332	-5.13318E-001	1.60015E+000	2.60800E-004	......
	8	2.32498	-5.13268E-001	1.60015E+000	1.60800E-004	......
	16	4.39164	-5.13318E-001	1.60015E+000	1.60800E-004	......
	24	6.45829	-5.13318E-001	1.60015E+000	6.08000E-005	......
	32	8.52494	-5.13368E-001	1.60015E+000	2.60800E-004	......
	40	10.5916	-5.13368E-001	1.60015E+000	1.60800E-004	......
	48	12.6582	-5.13268E-001	1.60015E+000	1.60800E-004	......
	56	14.7249	-5.13268E-001	1.60015E+000	6.08000E-005	......
	64	16.7915	-5.13218E-001	1.60015E+000	6.08000E-005	......
	72	18.8582	-5.13368E-001	1.60015E+000	6.08000E-005	......
	80	20.9249	-5.13268E-001	1.60015E+000	6.08000E-005	......
	88	22.9915	-5.13268E-001	1.60015E+000	1.60800E-004	......
	96	25.0582	-5.13268E-001	1.60015E+000	1.60800E-004	......
	104	27.1248	-5.13268E-001	1.60015E+000	2.60800E-004	......
	112	29.1915	-5.13268E-001	1.60015E+000	1.60800E-004	......
	120	31.2581	-5.13368E-001	1.60015E+000	2.60800E-004	......
	128	33.3248	-5.13318E-001	1.60015E+000	2.60800E-004	......
	136	35.3914	-5.13268E-001	1.60015E+000	6.08000E-005	......
	144	37.4581	-5.13318E-001	1.60015E+000	2.60800E-004	......
	152	39.5247	-5.13219E-001	1.60015E+000	1.60800E-004	......
	160	41.5914	-5.13219E-001	1.60015E+000	1.60800E-004	......
	168	43.658	-5.13268E-001	1.60015E+000	2.60800E-004	......
	176	45.7247	-5.13218E-001	1.60015E+000	1.60800E-004	......
	184	47.7913	-5.13268E-001	1.60015E+000	6.08000E-005	......
	192	49.858	-5.13268E-001	1.60015E+000	1.60800E-004	......
	200	51.9246	-5.13218E-001	1.60015E+000	1.60800E-004	......
	208	53.9913	-5.13218E-001	1.60015E+000	1.60800E-004	......
	216	56.0579	-5.13268E-001	1.60015E+000	6.08000E-005	......
	224	58.1246	-5.13268E-001	1.60015E+000	1.60800E-004	......
	232	60.1912	-5.13318E-001	1.60015E+000	1.60800E-004	......
	240	62.2579	-5.13268E-001	1.60015E+000	1.60800E-004	......
	248	64.3245	-5.13268E-001	1.60015E+000	1.60800E-004	......
	256	66.3912	-5.13268E-001	1.60015E+000	6.08000E-005	......
	264	68.4578	-5.13219E-001	1.60015E+000	1.60800E-004	......
	272	70.5245	-5.13219E-001	1.60015E+000	2.60800E-004	......
	280	72.5912	-5.13268E-001	1.60015E+000	1.60800E-004	......
	288	74.6578	-5.13168E-001	1.60015E+000	1.60800E-004	......
	296	76.7245	-5.13268E-001	1.60015E+000	2.60800E-004	......
	304	78.7911	-5.13119E-001	1.60015E+000	1.60800E-004	......
	312	80.8578	-5.13068E-001	1.60015E+000	6.08000E-005	......
	320	82.9244	-5.13218E-001	1.60015E+000	1.60800E-004	......
	328	84.9911	-5.13168E-001	1.60015E+000	1.60800E-004	......
	336	87.0577	-5.13218E-001	1.60015E+000	1.60800E-004	......
	344	89.1244	-5.13219E-001	1.60015E+000	1.60800E-004	......
	352	91.191	-5.13219E-001	1.60015E+000	6.08000E-005	......
	360	93.2577	-5.13169E-001	1.60015E+000	6.08000E-005	......
	368	95.324	-5.13218E-001	1.60015E+000	1.60800E-004	......
	376	97.391	-5.13268E-001	1.60015E+000	2.60800E-004	......
	384	99.458	-5.13218E-001	1.60015E+000	2.60800E-004	......
	392	101.524	-5.13119E-001	1.60015E+000	6.08000E-005	......
	400	103.591	-5.13169E-001	1.60015E+000	1.60800E-004	......
	408	105.658	-5.13169E-001	1.60015E+000	1.60800E-004	......
	416	107.724	-5.13169E-001	1.60015E+000	3.60800E-004	......
	424	109.791	-5.13119E-001	1.60015E+000	1.60800E-004	......
	432	111.858	-5.13068E-001	1.60015E+000	1.60800E-004	......
	440	113.924	-5.13169E-001	1.60015E+000	1.60800E-004	......
	448	115.991	-5.13119E-001	1.60015E+000	6.08000E-005	......
	456	118.057	-5.13169E-001	1.60015E+000	6.08000E-005	......
	464	120.124	-5.13219E-001	1.60015E+000	1.60800E-004	......
	472	122.191	-5.13169E-001	1.60015E+000	1.60800E-004	......
	480	124.257	-5.13068E-001	1.60015E+000	6.08000E-005	......
	488	126.324	-5.13068E-001	1.60015E+000	1.60800E-004	......
	496	128.391	-5.13169E-001	1.60015E+000	1.60800E-004	......
	504	130.457	-5.13218E-001	1.60015E+000	2.60800E-004	......
	512	132.524	-5.13119E-001	1.60015E+000	6.08000E-005	......
	520	134.591	-5.13119E-001	1.60015E+000	1.60800E-004	......
	528	136.657	-5.13169E-001	1.60015E+000	2.60800E-004	......
	536	138.724	-5.13068E-001	1.60015E+000	6.08000E-005	......
	544	140.791	-5.13119E-001	1.60015E+000	1.60800E-004	......
	552	142.857	-5.13068E-001	1.60015E+000	1.60800E-004	......
	560	144.924	-5.13169E-001	1.60015E+000	1.60800E-004	......
	568	146.991	-5.13018E-001	1.60015E+000	3.60800E-004	......
	576	149.057	-5.13119E-001	1.60015E+000	1.60800E-004	......
	584	151.124	-5.13169E-001	1.60015E+000	6.08000E-005	......
	592	153.191	-5.13119E-001	1.60015E+000	1.60800E-004	......
	600	155.257	-5.13119E-001	1.60015E+000	1.60800E-004	......
	608	157.324	-5.13068E-001	1.60015E+000	3.60800E-004	......
	616	159.391	-5.13119E-001	1.60015E+000	6.08000E-005	......
	624	161.457	-5.13018E-001	1.60015E+000	1.60800E-004	......
	632	163.524	-5.13018E-001	1.60015E+000	1.60800E-004	......
	640	165.59	-5.13068E-001	1.60015E+000	6.08000E-005	......
	648	167.657	-5.13068E-001	1.60015E+000	6.08000E-005	......
	656	169.724	-5.12968E-001	1.60015E+000	1.60800E-004	......
	664	171.79	-5.12918E-001	1.60015E+000	1.60800E-004	......
	672	173.857	-5.13068E-001	1.60015E+000	1.60800E-004	......
	680	175.924	-5.13119E-001	1.60015E+000	1.60800E-004	......
	688	177.99	-5.13068E-001	1.60015E+000	3.60800E-004	......
	696	180.057	-5.13018E-001	1.60015E+000	1.60800E-004	......
	704	182.124	-5.13018E-001	1.60015E+000	6.08000E-005	......
	712	184.19	-5.12968E-001	1.60015E+000	1.60800E-004	......
	720	186.257	-5.13018E-001	1.60015E+000	6.08000E-005	......
	728	188.324	-5.13068E-001	1.60015E+000	2.60800E-004	......
	736	190.39	-5.13018E-001	1.60015E+000	1.60800E-004	......
	744	192.457	-5.13068E-001	1.60015E+000	1.60800E-004	......
	752	194.524	-5.12968E-001	1.60015E+000	1.60800E-004	......
	760	196.59	-5.13018E-001	1.60015E+000	1.60800E-004	......
	768	198.657	-5.12968E-001	1.60015E+000	6.08000E-005	......
	776	200.724	-5.12968E-001	1.60015E+000	6.08000E-005	......
	784	202.79	-5.13068E-001	1.60015E+000	2.60800E-004	......
	792	204.857	-5.12968E-001	1.60015E+000	1.60800E-004	......
	800	206.924	-5.13018E-001	1.60015E+000	1.60800E-004	......
	808	208.99	-5.13018E-001	1.60015E+000	1.60800E-004	......
	816	211.057	-5.13018E-001	1.60015E+000	1.60800E-004	......
	824	213.123	-5.12918E-001	1.60015E+000	1.60800E-004	......
	832	215.19	-5.12968E-001	1.60015E+000	1.60800E-004	......
	840	217.257	-5.13068E-001	1.60015E+000	2.60800E-004	......
	848	219.323	-5.12968E-001	1.60015E+000	1.60800E-004	......
	856	221.39	-5.12918E-001	1.60015E+000	2.60800E-004	......
	864	223.457	-5.12968E-001	1.60015E+000	6.08000E-005	......
	872	225.523	-5.12968E-001	1.60015E+000	1.60800E-004	......
	880	227.59	-5.12918E-001	1.60015E+000	1.60800E-004	......
	888	229.657	-5.13018E-001	1.60015E+000	6.08000E-005	......
	896	231.723	-5.12968E-001	1.60015E+000	6.08000E-005	......
	904	233.79	-5.12918E-001	1.60015E+000	2.60800E-004	......
	912	235.857	-5.12918E-001	1.60015E+000	2.60800E-004	......
	920	237.923	-5.12918E-001	1.60015E+000	1.60800E-004	......
	928	239.99	-5.12918E-001	1.60015E+000	1.60800E-004	......
	936	242.057	-5.12918E-001	1.60015E+000	1.60800E-004	......
	944	244.123	-5.12918E-001	1.60015E+000	6.08000E-005	......
	952	246.19	-5.12819E-001	1.60015E+000	1.60800E-004	......
	960	248.257	-5.12968E-001	1.60015E+000	6.08000E-005	......
	968	250.323	-5.12918E-001	1.60015E+000	1.60800E-004	......
	976	252.39	-5.12918E-001	1.60015E+000	1.60800E-004	......
	984	254.457	-5.12868E-001	1.60015E+000	6.08000E-005	......
	992	256.523	-5.12868E-001	1.60015E+000	1.60800E-004	......
	1000	258.59	-5.12818E-001	1.60015E+000	2.60800E-004	......
	1008	260.656	-5.12868E-001	1.60015E+000	6.08000E-005	......
	1016	262.723	-5.12968E-001	1.60015E+000	1.60800E-004	......
	1024	264.79	-5.12968E-001	1.60015E+000	1.60800E-004	......
	1032	266.856	-5.12968E-001	1.60015E+000	6.08000E-005	......
	1040	268.923	-5.12819E-001	1.60015E+000	1.60800E-004	......
	1048	270.99	-5.12819E-001	1.60015E+000	6.08000E-005	......
	1056	273.056	-5.12918E-001	1.60015E+000	6.08000E-005	......
	1064	275.123	-5.12819E-001	1.60015E+000	1.60800E-004	......
	1072	277.19	-5.12818E-001	1.60015E+000	3.60800E-004	......
	1080	279.256	-5.12868E-001	1.60015E+000	1.60800E-004	......
	1088	281.323	-5.12868E-001	1.60015E+000	1.60800E-004	......
	1096	283.39	-5.12818E-001	1.60015E+000	6.08000E-005	......
	1104	285.456	-5.12918E-001	1.60015E+000	1.60800E-004	......
	1112	287.523	-5.12868E-001	1.60015E+000	2.60800E-004	......
	1120	289.59	-5.12818E-001	1.60015E+000	6.08000E-005	......
	1128	291.656	-5.12918E-001	1.60015E+000	6.08000E-005	......
	1136	293.723	-5.12868E-001	1.60015E+000	1.60800E-004	......
	1144	295.79	-5.12668E-001	1.60015E+000	6.08000E-005	......
	1152	297.856	-5.12818E-001	1.60015E+000	1.60800E-004	......
	1160	299.923	-5.12818E-001	1.60015E+000	1.60800E-004	......
EOC	QUANT	-0.512818	Open Circuit (V)
PSTATMODEL	IQUANT	35	Pstat Model
PSTATSECTION	LABEL	PStat0	Pstat Section
CTRLMODE	IQUANT	1	Control Mode
IESTAB	IQUANT	1	I/E Stability
CASPEED	IQUANT	2	Control Amp Speed
CONVENTION	IQUANT	1	Current Convention
ICHRANGE	IQUANT	2	Ich Range
ICHRANGEMODE	TOGGLE	T	Ich Auto Range
ICHOFFSETENABLE	TOGGLE	F	Ich Offset Enable
ICHOFFSET	QUANT	0	Ich Offset (V)
ICHFILTER	IQUANT	3	Ich Filter
VCHRANGE	IQUANT	3	Vch Range
VCHRANGEMODE	TOGGLE	T	Vch Auto Range
VCHOFFSETENABLE	TOGGLE	F	Vch Offset Enable
VCHOFFSET	QUANT	0	Vch Offset (V)
VCHFILTER	IQUANT	3	Vch Filter
ACHRANGE	IQUANT	0	Ach Range
IERANGELOWERLIMIT	IQUANT	3	I/E Range Lower Limit
IERANGEMODE	TOGGLE	T	I/E AutoRange
IERANGE	IQUANT	10	I/E Range
POSFEEDENABLE	TOGGLE	F	Positive Feedback IR Comp
POSFEEDRESISTANCE	QUANT	0	Positive Feedback Resistance (ohm)
FC350IDIVISOR	IQUANT	0	FC350 I Divisor
FC350VRANGE	IQUANT	0	FC350 V Range
FRAMEWORKVERSION	QUANT	4.3	Framework Version
CURVE	TABLE	2555
	Pt	T	Vf	Im	Vu	Sig	Ach	Over
	#	s	V vs. Ref.	A	V	V	V	bits
	0	4.99998	-5.32749E-001	-9.95321E-003	0.00000E+000	-5.32800E-001	3.60800E-004	......
	22	114.999	-5.14868E-001	-1.44546E-003	0.00000E+000	-5.14450E-001	2.60800E-004	......
	44	224.999	-4.96569E-001	8.56179E-003	0.00000E+000	-4.96100E-001	3.60800E-004	......
	66	334.998	-4.78268E-001	1.92093E-002	0.00000E+000	-4.77700E-001	3.60800E-004	......
	88	444.998	-4.60068E-001	3.00843E-002	0.00000E+000	-4.59350E-001	3.60800E-004	......
	110	554.997	-4.41568E-001	3.22118E-002	0.00000E+000	-4.40950E-001	3.60800E-004	......
	132	664.997	-4.23168E-001	2.77018E-002	0.00000E+000	-4.22600E-001	3.60800E-004	......
	154	774.996	-4.04768E-001	2.14768E-002	0.00000E+000	-4.04250E-001	3.60800E-004	......
	176	884.996	-3.86468E-001	1.30543E-002	0.00000E+000	-3.85850E-001	3.60800E-004	......
	198	995	-3.67968E-001	6.31179E-003	0.00000E+000	-3.67500E-001	2.60800E-004	......
	220	1104.99	-3.49669E-001	2.89129E-003	0.00000E+000	-3.49100E-001	2.60800E-004	......
	242	1214.99	-3.31268E-001	1.35629E-003	0.00000E+000	-3.30750E-001	3.60800E-004	......
	264	1324.99	-3.12869E-001	6.21794E-004	0.00000E+000	-3.12400E-001	3.60800E-004	......
	286	1434.99	-2.94468E-001	2.92672E-004	0.00000E+000	-2.94000E-001	3.60800E-004	......
	308	1544.99	-2.76168E-001	1.56397E-004	0.00000E+000	-2.75650E-001	3.60800E-004	......
	330	1654.99	-2.57668E-001	9.67221E-005	0.00000E+000	-2.57250E-001	2.60800E-004	......
	352	1764.99	-2.39305E-001	6.72721E-005	0.00000E+000	-2.38900E-001	2.60800E-004	......
	374	1874.99	-2.21115E-001	4.93052E-005	0.00000E+000	-2.20550E-001	3.60800E-004	.....h
	396	1984.99	-2.02705E-001	3.80702E-005	0.00000E+000	-2.02150E-001	4.60800E-004	.....h
	418	2094.99	-1.84365E-001	3.02702E-005	0.00000E+000	-1.83800E-001	3.60800E-004	.....h
	440	2204.99	-1.65975E-001	2.50527E-005	0.00000E+000	-1.65400E-001	4.60800E-004	.....h
	462	2314.99	-1.47625E-001	2.14327E-005	0.00000E+000	-1.47050E-001	2.60800E-004	.....h
	484	2424.99	-1.29245E-001	1.83677E-005	0.00000E+000	-1.28700E-001	2.60800E-004	.....h
	506	2534.99	-1.10855E-001	1.66727E-005	0.00000E+000	-1.10300E-001	2.60800E-004	.....h
	528	2644.99	-9.25846E-002	1.67477E-005	0.00000E+000	-9.19499E-002	3.60800E-004	.....h
	550	2754.99	-7.42346E-002	2.06902E-005	0.00000E+000	-7.35500E-002	3.60800E-004	.....h
	572	2864.99	-5.59146E-002	3.37577E-005	0.00000E+000	-5.52000E-002	3.60800E-004	.....h
	594	2974.99	-3.76246E-002	6.47052E-005	0.00000E+000	-3.68500E-002	4.60800E-004	.....h
	616	3084.99	-1.91183E-002	1.20447E-004	0.00000E+000	-1.84500E-002	3.60800E-004	......
	638	3194.98	-7.69266E-004	1.64347E-004	0.00000E+000	-9.99570E-005	3.60800E-004	......
	660	3304.98	1.76617E-002	1.56872E-004	0.00000E+000	1.83001E-002	2.60800E-004	......
	682	3414.98	3.59654E-002	1.31872E-004	0.00000E+000	3.66500E-002	2.60800E-004	......
	704	3524.98	5.43754E-002	1.09522E-004	0.00000E+000	5.50000E-002	3.60800E-004	......
	726	3634.98	7.27254E-002	8.28971E-005	0.00000E+000	7.34000E-002	2.60800E-004	......
	748	3744.98	9.10954E-002	6.00221E-005	0.00000E+000	9.17500E-002	2.60800E-004	......
	770	3854.98	1.09395E-001	4.19602E-005	0.00000E+000	1.10150E-001	3.60800E-004	......
	792	3964.98	1.27785E-001	2.29402E-005	0.00000E+000	1.28500E-001	3.60800E-004	......
	814	4074.98	1.46165E-001	1.27827E-005	0.00000E+000	1.46850E-001	3.60800E-004	......
	836	4184.98	1.64515E-001	9.92767E-006	0.00000E+000	1.65250E-001	3.60800E-004	......
	858	4294.98	1.82845E-001	8.87767E-006	0.00000E+000	1.83600E-001	3.60800E-004	......
	880	4404.98	2.01245E-001	8.15767E-006	0.00000E+000	2.02000E-001	2.60800E-004	......
	902	4514.98	2.19595E-001	7.62767E-006	0.00000E+000	2.20350E-001	3.60800E-004	......
	924	4624.98	2.37885E-001	7.18517E-006	0.00000E+000	2.38700E-001	2.60800E-004	......
	946	4734.98	2.56225E-001	6.82017E-006	0.00000E+000	2.57100E-001	2.60800E-004	......
	968	4844.98	2.74635E-001	6.52517E-006	0.00000E+000	2.75450E-001	2.60800E-004	......
	990	4954.98	2.93035E-001	6.21267E-006	0.00000E+000	2.93850E-001	2.60800E-004	......
	1012	5064.98	3.11135E-001	5.91715E-006	0.00000E+000	3.12200E-001	3.60800E-004	.....h
	1034	5174.97	3.29635E-001	5.72190E-006	0.00000E+000	3.30550E-001	2.60800E-004	.....h
	1056	5284.97	3.48035E-001	5.59990E-006	0.00000E+000	3.48950E-001	4.60800E-004	.....h
	1078	5394.97	3.66335E-001	5.48065E-006	0.00000E+000	3.67300E-001	3.60800E-004	.....h
	1100	5504.97	3.84735E-001	5.37515E-006	0.00000E+000	3.85700E-001	4.60800E-004	.....h
	1122	5614.97	4.03135E-001	5.29440E-006	0.00000E+000	4.04050E-001	3.60800E-004	.....h
	1144	5724.97	4.21535E-001	5.24115E-006	0.00000E+000	4.22400E-001	3.60800E-004	.....h
	1166	5834.97	4.39835E-001	5.23640E-006	0.00000E+000	4.40800E-001	3.60800E-004	.....h
	1188	5944.97	4.58235E-001	5.29340E-006	0.00000E+000	4.59150E-001	2.60800E-004	.....h
	1210	6054.97	4.76635E-001	5.35140E-006	0.00000E+000	4.77550E-001	3.60800E-004	.....h
	1232	6164.97	4.95035E-001	5.43865E-006	0.00000E+000	4.95900E-001	2.60800E-004	.....h
	1254	6274.97	5.13335E-001	5.56815E-006	0.00000E+000	5.14250E-001	4.60800E-004	.....h
	1276	6384.97	5.31735E-001	5.72040E-006	0.00000E+000	5.32650E-001	4.60800E-004	.....h
	1298	6494.97	5.50135E-001	5.90915E-006	0.00000E+000	5.51000E-001	4.60800E-004	.....h
	1320	6604.97	5.68435E-001	6.15065E-006	0.00000E+000	5.69400E-001	3.60800E-004	.....h
	1342	6714.97	5.86635E-001	6.43740E-006	0.00000E+000	5.87750E-001	5.60800E-004	.....h
	1364	6824.97	6.05235E-001	6.79767E-006	0.00000E+000	6.06100E-001	2.60800E-004	......
	1386	6934.97	6.23635E-001	7.15767E-006	0.00000E+000	6.24500E-001	4.60800E-004	......
	1408	7044.97	6.41835E-001	7.57267E-006	0.00000E+000	6.42850E-001	3.60800E-004	......
	1430	7154.97	6.60335E-001	7.99017E-006	0.00000E+000	6.61250E-001	1.60800E-004	......
	1452	7264.96	6.78635E-001	8.49767E-006	0.00000E+000	6.79600E-001	4.60800E-004	......
	1474	7374.96	6.96935E-001	9.00267E-006	0.00000E+000	6.97950E-001	2.60800E-004	......
	1496	7484.96	7.15335E-001	9.56517E-006	0.00000E+000	7.16350E-001	3.60800E-004	......
	1518	7594.96	7.33635E-001	1.02077E-005	0.00000E+000	7.34700E-001	3.60800E-004	......
	1540	7704.96	7.52035E-001	1.09927E-005	0.00000E+000	7.53100E-001	2.60800E-004	......
	1562	7814.96	7.70535E-001	1.20652E-005	0.00000E+000	7.71450E-001	2.60800E-004	......
	1584	7924.96	7.88735E-001	1.36177E-005	0.00000E+000	7.89800E-001	3.60800E-004	......
	1606	8034.96	8.07135E-001	1.59027E-005	0.00000E+000	8.08200E-001	2.60800E-004	......
	1628	8144.96	8.25535E-001	1.90452E-005	0.00000E+000	8.26550E-001	2.60800E-004	......
	1650	8254.96	8.43935E-001	2.23602E-005	0.00000E+000	8.44950E-001	2.60800E-004	......
	1672	8364.96	8.62135E-001	2.40402E-005	0.00000E+000	8.63300E-001	1.60800E-004	......
	1694	8474.96	8.80635E-001	2.49377E-005	0.00000E+000	8.81650E-001	2.60800E-004	......
	1716	8584.96	8.99035E-001	2.62577E-005	0.00000E+000	9.00050E-001	3.60800E-004	......
	1738	8694.96	9.17335E-001	2.99552E-005	0.00000E+000	9.18400E-001	2.60800E-004	......
	1760	8804.96	9.35835E-001	3.98877E-005	0.00000E+000	9.36800E-001	4.60800E-004	......
	1782	8914.96	9.54035E-001	6.61277E-005	0.00000E+000	9.55150E-001	3.60800E-004	......
	1804	9024.96	9.72435E-001	1.22147E-004	0.00000E+000	9.73500E-001	2.60800E-004	......
	1826	9134.96	9.90835E-001	1.87247E-004	0.00000E+000	9.91900E-001	4.60800E-004	......
	1848	9244.96	1.00903E+000	3.73622E-004	0.00000E+000	1.01025E+000	2.60800E-004	......
	1870	9354.95	1.02753E+000	9.29794E-004	0.00000E+000	1.02865E+000	3.60800E-004	......
	1892	9464.95	1.04593E+000	1.65079E-003	0.00000E+000	1.04700E+000	3.60800E-004	......
	1914	9575	1.06423E+000	2.35829E-003	0.00000E+000	1.06535E+000	3.60800E-004	......
	1936	9685	1.08263E+000	2.96554E-003	0.00000E+000	1.08375E+000	2.60800E-004	......
	1958	9795	1.10083E+000	3.41479E-003	0.00000E+000	1.10210E+000	4.60800E-004	......
	1980	9905	1.11923E+000	3.73804E-003	0.00000E+000	1.12050E+000	2.60800E-004	......
	2002	10015	1.13763E+000	3.98729E-003	0.00000E+000	1.13885E+000	3.60800E-004	......
	2024	10125	1.15583E+000	4.18229E-003	0.00000E+000	1.15720E+000	2.60800E-004	......
	2046	10235	1.17423E+000	4.33804E-003	0.00000E+000	1.17560E+000	4.60800E-004	......
	2068	10344.9	1.19263E+000	4.44179E-003	0.00000E+000	1.19395E+000	3.60800E-004	......
	2090	10454.9	1.21104E+000	4.52079E-003	0.00000E+000	1.21235E+000	4.60800E-004	......
	2112	10564.9	1.22933E+000	4.58729E-003	0.00000E+000	1.23070E+000	2.60800E-004	......
	2134	10674.9	1.24774E+000	4.65579E-003	0.00000E+000	1.24905E+000	2.60800E-004	......
	2156	10784.9	1.26613E+000	4.72904E-003	0.00000E+000	1.26745E+000	4.60800E-004	......
	2178	10894.9	1.28443E+000	4.80829E-003	0.00000E+000	1.28580E+000	3.60800E-004	......
	2200	11004.9	1.30283E+000	4.89404E-003	0.00000E+000	1.30420E+000	3.60800E-004	......
	2222	11114.9	1.32123E+000	4.99304E-003	0.00000E+000	1.32255E+000	3.60800E-004	......
	2244	11224.9	1.33964E+000	5.11329E-003	0.00000E+000	1.34090E+000	3.60800E-004	......
	2266	11334.9	1.35803E+000	5.26904E-003	0.00000E+000	1.35930E+000	3.60800E-004	......
	2288	11444.9	1.37634E+000	5.47329E-003	0.00000E+000	1.37765E+000	4.60800E-004	......
	2310	11554.9	1.39473E+000	5.74629E-003	0.00000E+000	1.39605E+000	2.60800E-004	......
	2332	11664.9	1.41303E+000	6.10929E-003	0.00000E+000	1.41440E+000	4.60800E-004	......
	2354	11774.9	1.43133E+000	6.59704E-003	0.00000E+000	1.43275E+000	4.60800E-004	......
	2376	11884.9	1.44993E+000	7.28679E-003	0.00000E+000	1.45115E+000	3.60800E-004	......
	2398	11994.9	1.46813E+000	8.19679E-003	0.00000E+000	1.46950E+000	3.60800E-004	......
	2420	12104.9	1.48673E+000	9.48179E-003	0.00000E+000	1.48790E+000	2.60800E-004	......
	2442	12214.9	1.50493E+000	1.13418E-002	0.00000E+000	1.50625E+000	3.60800E-004	......
	2464	12324.9	1.52323E+000	1.40968E-002	0.00000E+000	1.52460E+000	2.60800E-004	......
	2486	12434.9	1.54154E+000	1.82443E-002	0.00000E+000	1.54300E+000	1.60800E-004	......
	2508	12544.9	1.55993E+000	2.45793E-002	0.00000E+000	1.56135E+000	2.60800E-004	......
	2530	12654.9	1.57833E+000	3.48443E-002	0.00000E+000	1.57975E+000	3.60800E-004	......
	2552	12764.9	1.59663E+000	5.03043E-002	0.00000E+000	1.59810E+000	3.60800E-004	......
	2554	12774.9	1.59824E+000	5.19893E-002	0.00000E+000	1.59975E+000	3.60800E-004	......